# Sample Au300K                                  
# R window limits:    1.200        3.500    
# Weight:         2
# R shell:        1.970
# K points:       440
# 
#   K        k*chi(k)      k^n*chi(k)    Amplitude    Amp*R^2,     Phase         Phase+2kr
   3.52797  0.449577       1.58609      0.473009       1.8357      -12.013       1.8869     
   3.56502  0.324639       1.15734      0.365570       1.4187      -11.998       2.0485     
   3.60180  0.237877      0.856786      0.296433       1.1504      -11.981       2.2102     
   3.64030  0.170280      0.619869      0.246850      0.95800      -11.962       2.3804     
   3.67686  0.120080      0.441517      0.213037      0.82677      -11.944       2.5428     
   3.71228  0.803865E-01  0.298417      0.188373      0.73106      -11.926       2.7007     
   3.74795  0.469503E-01  0.175967      0.169113      0.65631      -11.907       2.8603     
   3.78441  0.180482E-01  0.683016E-01  0.153595      0.59609      -11.887       3.0238     
   3.81901 -0.535542E-02 -0.204524E-01  0.141766      0.55018      -11.868       3.1794     
   3.85518 -0.262533E-01 -0.101211      0.131703      0.51113      -11.847       3.3423     
   3.88953 -0.431230E-01 -0.167728      0.123854      0.48067      -11.828       3.4972     
   3.92506 -0.578034E-01 -0.226882      0.117134      0.45459      -11.807       3.6577     
   3.96012 -0.697262E-01 -0.276124      0.111642      0.43327      -11.787       3.8161     
   3.99420 -0.790163E-01 -0.315607      0.107204      0.41605      -11.767       3.9703     
   4.02688 -0.858904E-01 -0.345870      0.103656      0.40228      -11.748       4.1182     
   4.06152 -0.910864E-01 -0.369949      0.100551      0.39023      -11.727       4.2750     
   4.09408 -0.940754E-01 -0.385152      0.981724E-01  0.38100      -11.708       4.4225     
   4.12795 -0.953000E-01 -0.393393      0.961956E-01  0.37333      -11.688       4.5758     
   4.15991 -0.947509E-01 -0.394155      0.947540E-01  0.36773      -11.670       4.7205     
   4.19280 -0.925173E-01 -0.387907      0.936686E-01  0.36352      -11.650       4.8693     
   4.22608 -0.885989E-01 -0.374426      0.929584E-01  0.36076      -11.631       5.0199     
   4.25778 -0.833798E-01 -0.355012      0.926307E-01  0.35949      -11.613       5.1631     
   4.28948 -0.767723E-01 -0.329313      0.926359E-01  0.35951      -11.594       5.3063     
   4.32114 -0.688597E-01 -0.297552      0.929721E-01  0.36082      -11.576       5.4491     
   4.35172 -0.599550E-01 -0.260907      0.934847E-01  0.36280      -11.559       5.5869     
   4.38291 -0.495464E-01 -0.217157      0.938995E-01  0.36441      -11.541       5.7273     
   4.41388 -0.381153E-01 -0.168236      0.941928E-01  0.36555      -11.524       5.8666     
   4.44410 -0.261690E-01 -0.116298      0.943657E-01  0.36622      -11.508       6.0022     
   4.47544 -0.132310E-01 -0.592146E-01  0.944281E-01  0.36647      -11.491       6.1426     
   4.50649 -0.167181E-03 -0.753401E-03  0.943740E-01  0.36626      -11.474       6.2814     
   4.53678  0.125312E-01  0.568512E-01  0.942118E-01  0.36563      -11.458       6.4166     
   4.56841  0.254331E-01  0.116189      0.939294E-01  0.36453      -11.442       6.5574     
   4.63957  0.516403E-01  0.239589      0.928865E-01  0.36048      -11.407       6.8727     
   4.69632  0.682240E-01  0.320402      0.916713E-01  0.35577      -11.381       7.1226     
   4.75171  0.796042E-01  0.378256      0.901819E-01  0.34999      -11.357       7.3648     
   4.80734  0.857104E-01  0.412039      0.884110E-01  0.34311      -11.335       7.6062     
   4.86316  0.863851E-01  0.420104      0.863877E-01  0.33526      -11.315       7.8462     
   4.91888  0.819504E-01  0.403105      0.841554E-01  0.32660      -11.297       8.0834     
   4.97431  0.731690E-01  0.363965      0.817620E-01  0.31731      -11.282       8.3166     
   5.02900  0.611603E-01  0.307575      0.792723E-01  0.30765      -11.271       8.5435     
   5.08315  0.470310E-01  0.239066      0.767238E-01  0.29776      -11.263       8.7649     
   5.13669  0.318931E-01  0.163825      0.741662E-01  0.28783      -11.258       8.9803     
   5.18973  0.166874E-01  0.866028E-01  0.716419E-01  0.27804      -11.258       9.1897     
   5.24259  0.210392E-02  0.110300E-01  0.691821E-01  0.26849      -11.261       9.3944     
   5.29419 -0.110005E-01 -0.582385E-01  0.668821E-01  0.25956      -11.269       9.5900     
   5.34474 -0.223864E-01 -0.119650      0.647700E-01  0.25137      -11.281       9.7777     
   5.39415 -0.319264E-01 -0.172216      0.628828E-01  0.24404      -11.296       9.9573     
   5.44286 -0.397347E-01 -0.216270      0.612308E-01  0.23763      -11.314       10.131     
   5.49200 -0.460329E-01 -0.252813      0.598080E-01  0.23211      -11.335       10.303     
   5.54014 -0.507412E-01 -0.281114      0.586800E-01  0.22773      -11.359       10.469     
   5.58921 -0.541479E-01 -0.302644      0.578228E-01  0.22440      -11.384       10.637     
   5.63845 -0.562339E-01 -0.317072      0.572734E-01  0.22227      -11.411       10.805     
   5.68518 -0.570157E-01 -0.324144      0.570439E-01  0.22138      -11.435       10.964     
   5.73247 -0.566072E-01 -0.324499      0.570967E-01  0.22159      -11.459       11.127     
   5.77882 -0.549771E-01 -0.317703      0.574149E-01  0.22282      -11.481       11.288     
   5.82543 -0.520175E-01 -0.303024      0.579822E-01  0.22502      -11.499       11.453     
   5.87320 -0.474950E-01 -0.278948      0.587965E-01  0.22818      -11.514       11.626     
   5.91934 -0.415923E-01 -0.246199      0.597799E-01  0.23200      -11.525       11.797     
   5.96507 -0.341925E-01 -0.203961      0.609175E-01  0.23641      -11.532       11.970     
   6.00893 -0.256495E-01 -0.154126      0.621352E-01  0.24114      -11.534       12.141     
   6.05463 -0.153306E-01 -0.928209E-01  0.635093E-01  0.24647      -11.533       12.323     
   6.09944 -0.398952E-02 -0.243338E-01  0.649370E-01  0.25201      -11.527       12.505     
   6.14366  0.810266E-02  0.497800E-01  0.664017E-01  0.25770      -11.517       12.689     
   6.18757  0.206105E-01  0.127529      0.678910E-01  0.26348      -11.504       12.875     
   6.23153  0.331691E-01  0.206694      0.694001E-01  0.26933      -11.488       13.065     
   6.27535  0.451785E-01  0.283511      0.709067E-01  0.27518      -11.468       13.257     
   6.31959  0.561922E-01  0.355111      0.724167E-01  0.28104      -11.445       13.455     
   6.36180  0.650994E-01  0.414150      0.738369E-01  0.28655      -11.420       13.646     
   6.40508  0.720582E-01  0.461539      0.752626E-01  0.29209      -11.392       13.844     
   6.44884  0.763572E-01  0.492416      0.766648E-01  0.29753      -11.361       14.048     
   6.49105  0.775142E-01  0.503149      0.779739E-01  0.30261      -11.329       14.246     
   6.53328  0.754827E-01  0.493150      0.792360E-01  0.30751      -11.295       14.446     
   6.57554  0.701543E-01  0.461302      0.804473E-01  0.31221      -11.259       14.649     
   6.61643  0.619132E-01  0.409645      0.815674E-01  0.31655      -11.223       14.846     
   6.65807  0.506177E-01  0.337016      0.826533E-01  0.32077      -11.184       15.049     
   6.69952  0.368323E-01  0.246759      0.836779E-01  0.32475      -11.144       15.252     
   6.74027  0.213138E-01  0.143661      0.846291E-01  0.32844      -11.103       15.453     
   6.78057  0.464648E-02  0.315058E-01  0.855149E-01  0.33187      -11.062       15.654     
   6.82113 -0.127584E-01 -0.870265E-01  0.863507E-01  0.33512      -11.019       15.856     
   6.86164 -0.300201E-01 -0.205987      0.871297E-01  0.33814      -10.975       16.060     
   6.90227 -0.464304E-01 -0.320475      0.878552E-01  0.34096      -10.930       16.265     
   6.94245 -0.610158E-01 -0.423599      0.885181E-01  0.34353      -10.885       16.468     
   6.98232 -0.731868E-01 -0.511014      0.891227E-01  0.34588      -10.839       16.671     
   7.02199 -0.824342E-01 -0.578852      0.896723E-01  0.34801      -10.792       16.874     
   7.06042 -0.882214E-01 -0.622880      0.901554E-01  0.34988      -10.747       17.071     
   7.09953 -0.905964E-01 -0.643193      0.905982E-01  0.35160      -10.700       17.273     
   7.13867 -0.892553E-01 -0.637164      0.909923E-01  0.35313      -10.652       17.474     
   7.17841 -0.840864E-01 -0.603606      0.913426E-01  0.35449      -10.603       17.680     
   7.21596 -0.758262E-01 -0.547159      0.916283E-01  0.35560      -10.556       17.875     
   7.25473 -0.641649E-01 -0.465499      0.918773E-01  0.35657      -10.507       18.076     
   7.29221 -0.502940E-01 -0.366755      0.920739E-01  0.35733      -10.460       18.272     
   7.33003 -0.342460E-01 -0.251024      0.922289E-01  0.35793      -10.411       18.469     
   7.36699 -0.171795E-01 -0.126561      0.923383E-01  0.35836      -10.364       18.662     
   7.40574  0.146458E-02  0.108463E-01  0.924090E-01  0.35863      -10.313       18.865     
   7.44265  0.192245E-01  0.143081      0.924344E-01  0.35873      -10.265       19.059     
   7.47957  0.362859E-01  0.271403      0.924193E-01  0.35867      -10.216       19.253     
   7.51678  0.520935E-01  0.391576      0.923633E-01  0.35845      -10.167       19.449     
   7.55358  0.657395E-01  0.496568      0.922680E-01  0.35808      -10.119       19.643     
   7.58944  0.766289E-01  0.581571      0.921369E-01  0.35757      -10.071       19.832     
   7.62707  0.850538E-01  0.648712      0.919593E-01  0.35689      -10.020       20.030     
   7.66264  0.898866E-01  0.688769      0.917541E-01  0.35609      -9.9725       20.218     
   7.69786  0.915038E-01  0.704383      0.915152E-01  0.35516      -9.9250       20.405     
   7.73355  0.898739E-01  0.695044      0.912374E-01  0.35408      -9.8767       20.593     
   7.76887  0.850920E-01  0.661069      0.909275E-01  0.35288      -9.8288       20.781     
   7.80404  0.773820E-01  0.603892      0.905846E-01  0.35155      -9.7809       20.967     
   7.83921  0.670186E-01  0.525373      0.902081E-01  0.35009      -9.7328       21.154     
   7.87495  0.541716E-01  0.426599      0.897916E-01  0.34847      -9.6838       21.344     
   7.90986  0.398385E-01  0.315117      0.893525E-01  0.34677      -9.6358       21.529     
   7.94384  0.246878E-01  0.196116      0.888949E-01  0.34499      -9.5890       21.710     
   7.97876  0.843022E-02  0.672628E-01  0.883943E-01  0.34305      -9.5407       21.896     
   8.01450 -0.831787E-02 -0.666636E-01  0.878513E-01  0.34094      -9.4912       22.086     
   8.05002 -0.244715E-01 -0.196996      0.872813E-01  0.33873      -9.4418       22.275     
   8.08481 -0.392453E-01 -0.317291      0.866951E-01  0.33646      -9.3932       22.461     
   8.12003 -0.526265E-01 -0.427329      0.860742E-01  0.33405      -9.3439       22.649     
   8.15399 -0.635901E-01 -0.518513      0.854506E-01  0.33163      -9.2963       22.830     
   8.18815 -0.723449E-01 -0.592371      0.847997E-01  0.32910      -9.2482       23.013     
   8.22180 -0.784810E-01 -0.645255      0.841362E-01  0.32652      -9.2007       23.193     
   8.25590 -0.820018E-01 -0.676998      0.834427E-01  0.32383      -9.1524       23.376     
   8.29043 -0.827197E-01 -0.685782      0.827198E-01  0.32103      -9.1033       23.561     
   8.32325 -0.807595E-01 -0.672182      0.820144E-01  0.31829      -9.0565       23.737     
   8.35577 -0.763761E-01 -0.638181      0.812994E-01  0.31551      -9.0100       23.912     
   8.38875 -0.696264E-01 -0.584079      0.805591E-01  0.31264      -8.9627       24.089     
   8.42136 -0.609165E-01 -0.512999      0.798132E-01  0.30975      -8.9157       24.264     
   8.45415 -0.504232E-01 -0.426285      0.790502E-01  0.30679      -8.8683       24.441     
   8.48801 -0.381464E-01 -0.323787      0.782503E-01  0.30368      -8.8192       24.624     
   8.52020 -0.255147E-01 -0.217390      0.774798E-01  0.30069      -8.7724       24.797     
   8.55174 -0.126177E-01 -0.107904      0.767162E-01  0.29773      -8.7263       24.968     
   8.58391  0.658974E-03  0.565657E-02  0.759298E-01  0.29468      -8.6792       25.141     
   8.61666  0.138823E-01  0.119619      0.751229E-01  0.29154      -8.6310       25.319     
   8.64873  0.261557E-01  0.226214      0.743272E-01  0.28846      -8.5837       25.492     
   8.68081  0.373933E-01  0.324604      0.735274E-01  0.28535      -8.5361       25.666     
   8.71291  0.472768E-01  0.411918      0.727243E-01  0.28224      -8.4884       25.840     
   8.74477  0.554722E-01  0.485091      0.719251E-01  0.27913      -8.4409       26.014     
   8.77751  0.619866E-01  0.544088      0.711031E-01  0.27594      -8.3918       26.192     
   8.80955  0.663314E-01  0.584349      0.702991E-01  0.27282      -8.3437       26.366     
   8.84083  0.685464E-01  0.606007      0.695153E-01  0.26978      -8.2965       26.536     
   8.87229  0.687281E-01  0.609776      0.687288E-01  0.26673      -8.2488       26.708     
   8.90378  0.668907E-01  0.595580      0.679447E-01  0.26369      -8.2010       26.880     
   8.93478  0.632011E-01  0.564688      0.671766E-01  0.26071      -8.1537       27.049     
   8.96567  0.578115E-01  0.518319      0.664155E-01  0.25775      -8.1065       27.218     
   8.99671  0.508605E-01  0.457578      0.656557E-01  0.25480      -8.0589       27.388     
   9.02786  0.425753E-01  0.384364      0.648992E-01  0.25187      -8.0110       27.559     
   9.05772  0.336442E-01  0.304740      0.641798E-01  0.24908      -7.9649       27.723     
   9.08974  0.232896E-01  0.211696      0.634155E-01  0.24611      -7.9153       27.898     
   9.12077  0.128008E-01  0.116753      0.626826E-01  0.24326      -7.8671       28.069     
   9.15137  0.231910E-02  0.212230E-01  0.619672E-01  0.24049      -7.8195       28.237     
   9.18231 -0.810801E-02 -0.744503E-01  0.612521E-01  0.23771      -7.7712       28.407     
   9.21306 -0.180097E-01 -0.165925      0.605501E-01  0.23499      -7.7231       28.576     
   9.24273 -0.268776E-01 -0.248423      0.598807E-01  0.23239      -7.6766       28.740     
   9.27307 -0.350087E-01 -0.324638      0.592052E-01  0.22977      -7.6289       28.907     
   9.30371 -0.420563E-01 -0.391280      0.585321E-01  0.22716      -7.5806       29.076     
   9.33340 -0.476054E-01 -0.444320      0.578886E-01  0.22466      -7.5337       29.240     
   9.36335 -0.517983E-01 -0.485005      0.572488E-01  0.22218      -7.4864       29.405     
   9.39304 -0.544821E-01 -0.511753      0.566235E-01  0.21975      -7.4393       29.569     
   9.42265 -0.556566E-01 -0.524433      0.560087E-01  0.21736      -7.3923       29.733     
   9.45369 -0.552762E-01 -0.522565      0.553741E-01  0.21490      -7.3429       29.905     
   9.48369 -0.533849E-01 -0.506286      0.547705E-01  0.21256      -7.2952       30.071     
   9.51314 -0.501498E-01 -0.477082      0.541867E-01  0.21029      -7.2482       30.234     
   9.54277 -0.456321E-01 -0.435457      0.536085E-01  0.20805      -7.2009       30.398     
   9.57208 -0.400591E-01 -0.383449      0.530455E-01  0.20586      -7.1540       30.560     
   9.60215 -0.333740E-01 -0.320462      0.524769E-01  0.20366      -7.1058       30.727     
   9.63178 -0.260273E-01 -0.250689      0.519257E-01  0.20152      -7.0583       30.891     
   9.66143 -0.181315E-01 -0.175176      0.513830E-01  0.19941      -7.0107       31.055     
   9.69083 -0.998136E-02 -0.967277E-01  0.508535E-01  0.19736      -6.9635       31.218     
   9.72044 -0.167258E-02 -0.162582E-01  0.503287E-01  0.19532      -6.9158       31.383     
   9.74906  0.624203E-02  0.608539E-01  0.498297E-01  0.19338      -6.8698       31.542     
   9.77799  0.139286E-01  0.136194      0.493333E-01  0.19146      -6.8231       31.702     
   9.80762  0.212759E-01  0.208666      0.488331E-01  0.18952      -6.7753       31.867     
   9.83724  0.279056E-01  0.274514      0.483414E-01  0.18761      -6.7274       32.031     
   9.86513  0.333478E-01  0.328981      0.478859E-01  0.18584      -6.6823       32.186     
   9.89371  0.379965E-01  0.375926      0.474267E-01  0.18406      -6.6361       32.345     
   9.92163  0.415376E-01  0.412121      0.469854E-01  0.18235      -6.5908       32.500     
   9.95114  0.441320E-01  0.439164      0.465268E-01  0.18057      -6.5430       32.664     
   9.97962  0.454749E-01  0.453822      0.460914E-01  0.17888      -6.4967       32.823     
  10.00856  0.456566E-01  0.456957      0.456568E-01  0.17719      -6.4497       32.984     
  10.03732  0.446729E-01  0.448397      0.452321E-01  0.17554      -6.4029       33.144     
  10.06544  0.426334E-01  0.429123      0.448243E-01  0.17396      -6.3571       33.301     
  10.09335  0.396211E-01  0.399909      0.444264E-01  0.17241      -6.3117       33.456     
  10.12123  0.357174E-01  0.361504      0.440359E-01  0.17090      -6.2662       33.611     
  10.15012  0.308448E-01  0.313079      0.436386E-01  0.16936      -6.2190       33.773     
  10.17807  0.254583E-01  0.259116      0.432614E-01  0.16789      -6.1733       33.928     
  10.20627  0.194952E-01  0.198973      0.428879E-01  0.16644      -6.1271       34.086     
  10.23453  0.131430E-01  0.134512      0.425210E-01  0.16502      -6.0808       34.243     
  10.26345  0.641781E-02  0.658689E-01  0.421529E-01  0.16359      -6.0333       34.405     
  10.29115 -0.736602E-04 -0.758048E-03  0.418076E-01  0.16225      -5.9879       34.559     
  10.31823 -0.631914E-02 -0.652024E-01  0.414769E-01  0.16097      -5.9433       34.710     
  10.34636 -0.125546E-01 -0.129894      0.411404E-01  0.15966      -5.8970       34.868     
  10.37442 -0.183695E-01 -0.190573      0.408121E-01  0.15839      -5.8508       35.024     
  10.40200 -0.235619E-01 -0.245091      0.404968E-01  0.15716      -5.8054       35.178     
  10.42847 -0.279548E-01 -0.291525      0.402007E-01  0.15601      -5.7617       35.326     
  10.45561 -0.317639E-01 -0.332111      0.399041E-01  0.15486      -5.7169       35.478     
  10.48274 -0.347950E-01 -0.364746      0.396146E-01  0.15374      -5.6721       35.630     
  10.51067 -0.370436E-01 -0.389353      0.393239E-01  0.15261      -5.6259       35.786     
  10.53727 -0.383258E-01 -0.403849      0.390539E-01  0.15156      -5.5819       35.935     
  10.56377 -0.387522E-01 -0.409369      0.387917E-01  0.15055      -5.5381       36.083     
  10.59114 -0.383036E-01 -0.405679      0.385280E-01  0.14952      -5.4928       36.236     
  10.61767 -0.370273E-01 -0.393143      0.382791E-01  0.14856      -5.4489       36.385     
  10.64492 -0.348946E-01 -0.371450      0.380305E-01  0.14759      -5.4037       36.537     
  10.67271 -0.319241E-01 -0.340716      0.377843E-01  0.14664      -5.3577       36.693     
  10.69881 -0.284721E-01 -0.304618      0.375597E-01  0.14577      -5.3145       36.839     
  10.72512 -0.244279E-01 -0.261992      0.373397E-01  0.14491      -5.2710       36.986     
  10.75137 -0.199182E-01 -0.214148      0.371267E-01  0.14408      -5.2276       37.133     
  10.77798 -0.149678E-01 -0.161322      0.369172E-01  0.14327      -5.1836       37.282     
  10.80493 -0.967847E-02 -0.104575      0.367115E-01  0.14247      -5.1391       37.432     
  10.83169 -0.426907E-02 -0.462413E-01  0.365137E-01  0.14171      -5.0949       37.582     
  10.85852  0.118992E-02  0.129208E-01  0.363215E-01  0.14096      -5.0507       37.732     
  10.88514  0.652293E-02  0.710030E-01  0.361370E-01  0.14024      -5.0069       37.881     
  10.91179  0.116618E-01  0.127251      0.359582E-01  0.13955      -4.9631       38.029     
  10.93854  0.165122E-01  0.180620      0.357844E-01  0.13888      -4.9191       38.179     
  10.96436  0.208032E-01  0.228093      0.356220E-01  0.13825      -4.8768       38.323     
  10.99096  0.247340E-01  0.271850      0.354600E-01  0.13762      -4.8333       38.471     
  11.01694  0.280189E-01  0.308682      0.353067E-01  0.13702      -4.7909       38.616     
  11.04219  0.306273E-01  0.338192      0.351622E-01  0.13646      -4.7498       38.756     
  11.06849  0.326825E-01  0.361746      0.350162E-01  0.13589      -4.7071       38.903     
  11.09427  0.340074E-01  0.377287      0.348774E-01  0.13536      -4.6653       39.046     
  11.12035  0.346329E-01  0.385130      0.347410E-01  0.13483      -4.6232       39.191     
  11.14662  0.345299E-01  0.384892      0.346074E-01  0.13431      -4.5808       39.337     
  11.17275  0.337070E-01  0.376600      0.344782E-01  0.13381      -4.5388       39.482     
  11.19871  0.322020E-01  0.360621      0.343531E-01  0.13332      -4.4972       39.626     
  11.22474  0.300421E-01  0.337215      0.342307E-01  0.13285      -4.4557       39.770     
  11.25961  0.262171E-01  0.295194      0.340711E-01  0.13223      -4.4002       39.963     
  11.29584  0.212672E-01  0.240231      0.339098E-01  0.13160      -4.3428       40.163     
  11.33111  0.156899E-01  0.177784      0.337566E-01  0.13101      -4.2873       40.357     
  11.36624  0.960810E-02  0.109208      0.336070E-01  0.13043      -4.2322       40.551     
  11.40167  0.317538E-02  0.362046E-01  0.334585E-01  0.12985      -4.1769       40.746     
  11.43824 -0.351672E-02 -0.402251E-01  0.333070E-01  0.12926      -4.1202       40.946     
  11.47368 -0.980189E-02 -0.112464      0.331613E-01  0.12870      -4.0655       41.141     
  11.50918 -0.156666E-01 -0.180309      0.330158E-01  0.12813      -4.0110       41.335     
  11.54349 -0.207223E-01 -0.239208      0.328748E-01  0.12758      -3.9587       41.523     
  11.57836 -0.250657E-01 -0.290219      0.327308E-01  0.12703      -3.9057       41.713     
  11.61443 -0.285625E-01 -0.331737      0.325804E-01  0.12644      -3.8512       41.910     
  11.64926 -0.308643E-01 -0.359546      0.324333E-01  0.12587      -3.7989       42.099     
  11.68428 -0.320430E-01 -0.374399      0.322829E-01  0.12529      -3.7466       42.290     
  11.71878 -0.320638E-01 -0.375749      0.321321E-01  0.12470      -3.6953       42.477     
  11.75357 -0.309530E-01 -0.363808      0.319768E-01  0.12410      -3.6438       42.665     
  11.78752 -0.288253E-01 -0.339778      0.318218E-01  0.12350      -3.5939       42.849     
  11.82186 -0.257120E-01 -0.303964      0.316612E-01  0.12287      -3.5436       43.035     
  11.85649 -0.217168E-01 -0.257486      0.314951E-01  0.12223      -3.4931       43.221     
  11.89123 -0.169968E-01 -0.202113      0.313241E-01  0.12157      -3.4427       43.409     
  11.92688 -0.115985E-01 -0.138334      0.311438E-01  0.12087      -3.3912       43.601     
  11.96081 -0.612556E-02 -0.732667E-01  0.309675E-01  0.12018      -3.3424       43.783     
  11.99463 -0.536704E-03 -0.643756E-02  0.307870E-01  0.11948      -3.2940       43.965     
  12.02869  0.503629E-02  0.605799E-01  0.306005E-01  0.11876      -3.2454       44.148     
  12.06330  0.104525E-01  0.126092      0.304059E-01  0.11800      -3.1962       44.333     
  12.09774  0.154114E-01  0.186443      0.302072E-01  0.11723      -3.1474       44.518     
  12.13128  0.196708E-01  0.238631      0.300090E-01  0.11646      -3.1001       44.697     
  12.16535  0.232905E-01  0.283337      0.298027E-01  0.11566      -3.0522       44.879     
  12.19937  0.260816E-01  0.318179      0.295921E-01  0.11484      -3.0045       45.061     
  12.23254  0.279366E-01  0.341735      0.293822E-01  0.11403      -2.9581       45.238     
  12.26646  0.289014E-01  0.354518      0.291631E-01  0.11318      -2.9108       45.419     
  12.30076  0.289026E-01  0.355523      0.289370E-01  0.11230      -2.8631       45.602     
  12.33571  0.279133E-01  0.344331      0.287023E-01  0.11139      -2.8146       45.788     
  12.36864  0.261135E-01  0.322989      0.284772E-01  0.11052      -2.7690       45.963     
  12.40143  0.235555E-01  0.292122      0.282496E-01  0.10963      -2.7238       46.138     
  12.43474  0.202692E-01  0.252042      0.280149E-01  0.10872      -2.6779       46.315     
  12.46860  0.163378E-01  0.203710      0.277730E-01  0.10778      -2.6313       46.495     
  12.50279  0.119062E-01  0.148860      0.275257E-01  0.10682      -2.5844       46.677     
  12.53541  0.738605E-02  0.925871E-01  0.272870E-01  0.10590      -2.5397       46.850     
  12.56778  0.276139E-02  0.347046E-01  0.270477E-01  0.10497      -2.4954       47.022     
  12.60122 -0.201179E-02 -0.253510E-01  0.267983E-01  0.10400      -2.4498       47.199     
  12.63444 -0.660260E-02 -0.834202E-01  0.265484E-01  0.10303      -2.4045       47.375     
  12.66742 -0.108711E-01 -0.137708      0.262987E-01  0.10206      -2.3596       47.550     
  12.69956 -0.146349E-01 -0.185857      0.260539E-01  0.10111      -2.3159       47.720     
  12.73160 -0.178956E-01 -0.227840      0.258087E-01  0.10016      -2.2724       47.890     
  12.76362 -0.205792E-01 -0.262665      0.255627E-01  0.99206E-01  -2.2290       48.060     
  12.79641 -0.226626E-01 -0.289999      0.253100E-01  0.98225E-01  -2.1846       48.233     
  12.82927 -0.240270E-01 -0.308249      0.250562E-01  0.97241E-01  -2.1402       48.407     
  12.86119 -0.246347E-01 -0.316831      0.248093E-01  0.96282E-01  -2.0971       48.576     
  12.89326 -0.245294E-01 -0.316264      0.245612E-01  0.95319E-01  -2.0539       48.746     
  12.92693 -0.236671E-01 -0.305942      0.243007E-01  0.94309E-01  -2.0086       48.924     
  12.95860 -0.221921E-01 -0.287579      0.240559E-01  0.93359E-01  -1.9660       49.091     
  12.99019 -0.201356E-01 -0.261565      0.238122E-01  0.92413E-01  -1.9236       49.258     
  13.02203 -0.175423E-01 -0.228437      0.235672E-01  0.91462E-01  -1.8809       49.426     
  13.05495 -0.144008E-01 -0.188002      0.233147E-01  0.90482E-01  -1.8368       49.600     
  13.08753 -0.109333E-01 -0.143090      0.230656E-01  0.89515E-01  -1.7932       49.772     
  13.11961 -0.727937E-02 -0.955025E-01  0.228214E-01  0.88568E-01  -1.7504       49.941     
  13.15130 -0.354297E-02 -0.465947E-01  0.225814E-01  0.87636E-01  -1.7082       50.108     
  13.18317  0.234171E-03  0.308711E-02  0.223411E-01  0.86704E-01  -1.6657       50.276     
  13.21556  0.398125E-02  0.526145E-01  0.220984E-01  0.85762E-01  -1.6227       50.447     
  13.24726  0.745701E-02  0.987850E-01  0.218624E-01  0.84846E-01  -1.5806       50.614     
  13.27820  0.105798E-01  0.140481      0.216334E-01  0.83957E-01  -1.5396       50.776     
  13.31009  0.134360E-01  0.178834      0.213990E-01  0.83047E-01  -1.4974       50.944     
  13.34142  0.158163E-01  0.211011      0.211703E-01  0.82160E-01  -1.4560       51.109     
  13.37290  0.177256E-01  0.237043      0.209424E-01  0.81275E-01  -1.4145       51.275     
  13.40402  0.190994E-01  0.256008      0.207187E-01  0.80407E-01  -1.3735       51.438     
  13.43514  0.199361E-01  0.267844      0.204968E-01  0.79546E-01  -1.3326       51.602     
  13.46780  0.202258E-01  0.272397      0.202659E-01  0.78650E-01  -1.2898       51.773     
  13.50041  0.199199E-01  0.268927      0.200374E-01  0.77763E-01  -1.2470       51.945     
  13.53193  0.190806E-01  0.258198      0.198185E-01  0.76914E-01  -1.2058       52.110     
  13.56290  0.177693E-01  0.241003      0.196054E-01  0.76087E-01  -1.1653       52.273     
  13.59427  0.159960E-01  0.217453      0.193915E-01  0.75256E-01  -1.1244       52.437     
  13.62588  0.138145E-01  0.188234      0.191780E-01  0.74428E-01  -1.0832       52.603     
  13.65700  0.113471E-01  0.154967      0.189698E-01  0.73620E-01  -1.0427       52.766     
  13.68785  0.865845E-02  0.118515      0.187654E-01  0.72827E-01  -1.0026       52.927     
  13.71994  0.568603E-02  0.780120E-01  0.185549E-01  0.72010E-01 -0.96096       53.096     
  13.75206  0.262003E-02  0.360308E-01  0.183464E-01  0.71201E-01 -0.91933       53.264     
  13.78262 -0.302774E-03 -0.417301E-02  0.181501E-01  0.70439E-01 -0.87976       53.424     
  13.81303 -0.314165E-02 -0.433957E-01  0.179567E-01  0.69688E-01 -0.84042       53.583     
  13.84404 -0.589086E-02 -0.815533E-01  0.177616E-01  0.68931E-01 -0.80036       53.745     
  13.87603 -0.850304E-02 -0.117988      0.175625E-01  0.68158E-01 -0.75906       53.912     
  13.90718 -0.107643E-01 -0.149702      0.173707E-01  0.67414E-01 -0.71888       54.075     
  13.93776 -0.126608E-01 -0.176463      0.171846E-01  0.66692E-01 -0.67945       54.235     
  13.96821 -0.141897E-01 -0.198204      0.170012E-01  0.65980E-01 -0.64023       54.395     
  13.99891 -0.153371E-01 -0.214702      0.168185E-01  0.65271E-01 -0.60071       54.555     
  14.03004 -0.160755E-01 -0.225539      0.166354E-01  0.64560E-01 -0.56066       54.718     
  14.06077 -0.163751E-01 -0.230247      0.164567E-01  0.63867E-01 -0.52113       54.878     
  14.09017 -0.162638E-01 -0.229160      0.162876E-01  0.63211E-01 -0.48331       55.032     
  14.12135 -0.157327E-01 -0.222166      0.161106E-01  0.62523E-01 -0.44324       55.195     
  14.15285 -0.147878E-01 -0.209290      0.159339E-01  0.61838E-01 -0.40276       55.359     
  14.18364 -0.135004E-01 -0.191484      0.157634E-01  0.61176E-01 -0.36319       55.520     
  14.21249 -0.120034E-01 -0.170598      0.156055E-01  0.60563E-01 -0.32611       55.671     
  14.24291 -0.101657E-01 -0.144789      0.154411E-01  0.59925E-01 -0.28703       55.830     
  14.27310 -0.812845E-02 -0.116018      0.152800E-01  0.59300E-01 -0.24825       55.988     
  14.30278 -0.597081E-02 -0.853991E-01  0.151237E-01  0.58693E-01 -0.21012       56.143     
  14.33314 -0.366189E-02 -0.524863E-01  0.149657E-01  0.58080E-01 -0.17110       56.301     
  14.36261 -0.137929E-02 -0.198102E-01  0.148144E-01  0.57493E-01 -0.13324       56.455     
  14.39315  0.972047E-03  0.139908E-01  0.146597E-01  0.56893E-01 -0.93994E-01   56.615     
  14.42316  0.321123E-02  0.463160E-01  0.145096E-01  0.56310E-01 -0.55432E-01   56.772     
  14.45318  0.532692E-02  0.769909E-01  0.143614E-01  0.55735E-01 -0.16864E-01   56.929     
  14.48264  0.723543E-02  0.104788      0.142179E-01  0.55178E-01  0.20980E-01   57.083     
  14.51202  0.893216E-02  0.129624      0.140766E-01  0.54630E-01  0.58726E-01   57.236     
  14.54238  0.104307E-01  0.151688      0.139325E-01  0.54071E-01  0.97724E-01   57.395     
  14.57252  0.116308E-01  0.169490      0.137913E-01  0.53523E-01  0.13642       57.552     
  14.60120  0.124853E-01  0.182300      0.136586E-01  0.53008E-01  0.17323       57.702     
  14.63185  0.130732E-01  0.191285      0.135185E-01  0.52464E-01  0.21257       57.862     
  14.66099  0.133129E-01  0.195180      0.133870E-01  0.51954E-01  0.24993       58.014     
  14.69059  0.132388E-01  0.194486      0.132549E-01  0.51441E-01  0.28786       58.169     
  14.71941  0.128666E-01  0.189389      0.131278E-01  0.50948E-01  0.32477       58.319     
  14.74885  0.121959E-01  0.179876      0.129994E-01  0.50449E-01  0.36243       58.473     
  14.77918  0.112201E-01  0.165824      0.128685E-01  0.49941E-01  0.40119       58.631     
  14.80895  0.100108E-01  0.148250      0.127413E-01  0.49448E-01  0.43918       58.786     
  14.83819  0.861283E-02  0.127799      0.126176E-01  0.48968E-01  0.47646       58.939     
  14.86627  0.710910E-02  0.105686      0.124998E-01  0.48510E-01  0.51219       59.085     
  14.89600  0.538404E-02  0.802007E-01  0.123761E-01  0.48030E-01  0.54996       59.240     
  14.92539  0.358600E-02  0.535225E-01  0.122546E-01  0.47559E-01  0.58724       59.393     
  14.95463  0.175062E-02  0.261798E-01  0.121346E-01  0.47093E-01  0.62424       59.545     
  14.98317 -0.445231E-04 -0.667097E-03  0.120182E-01  0.46641E-01  0.66027       59.694     
  15.01209 -0.182651E-02 -0.274197E-01  0.119007E-01  0.46185E-01  0.69671       59.844     
  15.04088 -0.352368E-02 -0.529992E-01  0.117842E-01  0.45733E-01  0.73287       59.994     
  15.07000 -0.512618E-02 -0.772516E-01  0.116667E-01  0.45277E-01  0.76937       60.145     
  15.09835 -0.654254E-02 -0.987816E-01  0.115525E-01  0.44834E-01  0.80480       60.292     
  15.12716 -0.780739E-02 -0.118104      0.114365E-01  0.44384E-01  0.84068       60.442     
  15.15600 -0.887366E-02 -0.134489      0.113204E-01  0.43934E-01  0.87649       60.591     
  15.18502 -0.972453E-02 -0.147667      0.112035E-01  0.43480E-01  0.91241       60.741     
  15.21359 -0.103303E-01 -0.157160      0.110881E-01  0.43032E-01  0.94765       60.889     
  15.24122 -0.106895E-01 -0.162921      0.109762E-01  0.42597E-01  0.98159       61.032     
  15.27002 -0.108240E-01 -0.165283      0.108590E-01  0.42143E-01   1.0169       61.181     
  15.29965 -0.107096E-01 -0.163853      0.107379E-01  0.41673E-01   1.0530       61.334     
  15.32918 -0.103494E-01 -0.158647      0.106164E-01  0.41201E-01   1.0888       61.486     
  15.35676 -0.980374E-02 -0.150554      0.105022E-01  0.40758E-01   1.1222       61.628     
  15.38502 -0.905181E-02 -0.139262      0.103842E-01  0.40300E-01   1.1562       61.773     
  15.41382 -0.810678E-02 -0.124956      0.102630E-01  0.39830E-01   1.1908       61.921     
  15.44284 -0.699776E-02 -0.108065      0.101398E-01  0.39351E-01   1.2254       62.070     
  15.47066 -0.581370E-02 -0.899418E-01  0.100204E-01  0.38888E-01   1.2585       62.213     
  15.49844 -0.454236E-02 -0.703995E-01  0.990008E-02  0.38421E-01   1.2913       62.355     
  15.52770 -0.313786E-02 -0.487238E-01  0.977192E-02  0.37924E-01   1.3258       62.505     
  15.55601 -0.174733E-02 -0.271815E-01  0.964649E-02  0.37437E-01   1.3590       62.650     
  15.58405 -0.370617E-03 -0.577572E-02  0.952085E-02  0.36949E-01   1.3917       62.793     
  15.61110  0.929574E-03  0.145117E-01  0.939823E-02  0.36474E-01   1.4232       62.931     
  15.63918  0.222293E-02  0.347648E-01  0.926945E-02  0.35974E-01   1.4557       63.074     
  15.66787  0.345909E-02  0.541965E-01  0.913619E-02  0.35457E-01   1.4887       63.220     
  15.69655  0.458259E-02  0.719309E-01  0.900137E-02  0.34933E-01   1.5216       63.366     
  15.72333  0.551220E-02  0.866702E-01  0.887391E-02  0.34439E-01   1.5522       63.502     
  15.75070  0.632710E-02  0.996563E-01  0.874206E-02  0.33927E-01   1.5833       63.641     
  15.77962  0.702568E-02  0.110863      0.860109E-02  0.33380E-01   1.6161       63.788     
  15.80764  0.753405E-02  0.119095      0.846283E-02  0.32843E-01   1.6477       63.930     
  15.83479  0.786323E-02  0.124513      0.832728E-02  0.32317E-01   1.6782       64.067     
  15.86225  0.803109E-02  0.127391      0.818865E-02  0.31779E-01   1.7089       64.206     
  15.89043  0.803306E-02  0.127649      0.804479E-02  0.31221E-01   1.7403       64.349     
  15.91835  0.787089E-02  0.125292      0.790076E-02  0.30662E-01   1.7714       64.490     
  15.94567  0.756292E-02  0.120596      0.775832E-02  0.30109E-01   1.8016       64.628     
  15.97314  0.711626E-02  0.113669      0.761372E-02  0.29548E-01   1.8320       64.766     
  16.00083  0.654145E-02  0.104669      0.746661E-02  0.28977E-01   1.8625       64.906     
  16.02855  0.585751E-02  0.938874E-01  0.731802E-02  0.28401E-01   1.8929       65.045     
  16.05618  0.508660E-02  0.816714E-01  0.716875E-02  0.27821E-01   1.9232       65.185     
  16.08362  0.425221E-02  0.683909E-01  0.701939E-02  0.27242E-01   1.9533       65.323     
  16.11052  0.338664E-02  0.545605E-01  0.687191E-02  0.26669E-01   1.9827       65.458     
  16.13809  0.247150E-02  0.398854E-01  0.671988E-02  0.26079E-01   2.0127       65.597     
  16.16601  0.153626E-02  0.248351E-01  0.656506E-02  0.25478E-01   2.0432       65.737     
  16.19295  0.645002E-03  0.104445E-01  0.641500E-02  0.24896E-01   2.0725       65.873     
  16.21995 -0.219958E-03 -0.356770E-02  0.626394E-02  0.24310E-01   2.1020       66.009     
  16.24758 -0.105815E-02 -0.171923E-01  0.610893E-02  0.23708E-01   2.1321       66.148     
  16.27537 -0.183803E-02 -0.299147E-01  0.595263E-02  0.23102E-01   2.1624       66.287     
  16.30261 -0.252762E-02 -0.412068E-01  0.579921E-02  0.22506E-01   2.1921       66.424     
  16.32947 -0.312440E-02 -0.510197E-01  0.564785E-02  0.21919E-01   2.2215       66.560     
  16.35745 -0.364946E-02 -0.596959E-01  0.549025E-02  0.21307E-01   2.2522       66.701     
  16.38575 -0.407388E-02 -0.667536E-01  0.533100E-02  0.20689E-01   2.2834       66.843     
  16.41255 -0.437319E-02 -0.717752E-01  0.518052E-02  0.20105E-01   2.3130       66.978     
  16.43909 -0.457011E-02 -0.751285E-01  0.503202E-02  0.19529E-01   2.3424       67.112     
  16.46622 -0.467043E-02 -0.769044E-01  0.488080E-02  0.18942E-01   2.3727       67.250     
  16.49304 -0.467246E-02 -0.770630E-01  0.473210E-02  0.18365E-01   2.4028       67.385     
  16.52087 -0.457798E-02 -0.756322E-01  0.457871E-02  0.17770E-01   2.4342       67.526     
  16.54747 -0.440275E-02 -0.728545E-01  0.443319E-02  0.17205E-01   2.4644       67.661     
  16.57388 -0.415486E-02 -0.688622E-01  0.428991E-02  0.16649E-01   2.4947       67.796     
  16.60067 -0.383760E-02 -0.637067E-01  0.414594E-02  0.16090E-01   2.5257       67.932     
  16.62810 -0.345478E-02 -0.574464E-01  0.400005E-02  0.15524E-01   2.5578       68.073     
  16.65506 -0.303290E-02 -0.505131E-01  0.385836E-02  0.14974E-01   2.5897       68.211     
  16.68126 -0.259091E-02 -0.432197E-01  0.372246E-02  0.14447E-01   2.6210       68.345     
  16.70806 -0.211740E-02 -0.353776E-01  0.358539E-02  0.13915E-01   2.6535       68.483     
  16.73539 -0.162387E-02 -0.271761E-01  0.344776E-02  0.13380E-01   2.6872       68.625     
  16.76194 -0.114531E-02 -0.191976E-01  0.331633E-02  0.12870E-01   2.7204       68.762     
  16.78826 -0.681618E-03 -0.114432E-01  0.318837E-02  0.12374E-01   2.7538       68.900     
  16.81466 -0.236470E-03 -0.397617E-02  0.306254E-02  0.11885E-01   2.7880       69.038     
  16.86859  0.578588E-03  0.975997E-02  0.281371E-02  0.10920E-01   2.8599       69.322     
  16.90014  0.979148E-03  0.165477E-01  0.267369E-02  0.10376E-01   2.9034       69.490     
  16.93179  0.131450E-02  0.222568E-01  0.253761E-02  0.98482E-02   2.9483       69.660     
  16.96305  0.157557E-02  0.267264E-01  0.240770E-02  0.93440E-02   2.9940       69.828     
  16.99474  0.176656E-02  0.300222E-01  0.228082E-02  0.88516E-02   3.0417       70.001     
  17.02544  0.188102E-02  0.320252E-01  0.216268E-02  0.83931E-02   3.0895       70.170     
  17.05706  0.192860E-02  0.328962E-01  0.204613E-02  0.79408E-02   3.1404       70.345     
  17.08861  0.190934E-02  0.326279E-01  0.193521E-02  0.75103E-02   3.1930       70.522     
  17.11959  0.183150E-02  0.313545E-01  0.183163E-02  0.71084E-02   3.2466       70.698     
  17.15061  0.170235E-02  0.291963E-01  0.173344E-02  0.67273E-02   3.3021       70.876     
  17.18161  0.153026E-02  0.262924E-01  0.164092E-02  0.63682E-02   3.3596       71.055     
  17.21359  0.132042E-02  0.227292E-01  0.155541E-02  0.60364E-02   3.4212       71.243     
  17.24433  0.109803E-02  0.189348E-01  0.148573E-02  0.57660E-02   3.4823       71.425     
  17.27542  0.858147E-03  0.148249E-01  0.142689E-02  0.55376E-02   3.5462       71.611     
  17.30665  0.607459E-03  0.105131E-01  0.137904E-02  0.53519E-02   3.6123       71.800     
  17.33787  0.351970E-03  0.610240E-02  0.134207E-02  0.52084E-02   3.6801       71.991     
  17.36881  0.984282E-04  0.170958E-02  0.131600E-02  0.51073E-02   3.7487       72.182     
  17.39994 -0.153051E-03 -0.266308E-02  0.130041E-02  0.50468E-02   3.8188       72.375     
  17.43130 -0.398920E-03 -0.695369E-02  0.129572E-02  0.50285E-02   3.8903       72.570     
  17.46218 -0.630273E-03 -0.110059E-01  0.130233E-02  0.50542E-02   3.9608       72.762     
  17.49244 -0.843808E-03 -0.147603E-01  0.132029E-02  0.51239E-02   4.0297       72.950     
  17.52369 -0.104768E-02 -0.183592E-01  0.135169E-02  0.52458E-02   4.1001       73.143     
  17.55546 -0.123479E-02 -0.216773E-01  0.139838E-02  0.54270E-02   4.1703       73.339     
  17.58606 -0.139308E-02 -0.244988E-01  0.145920E-02  0.56630E-02   4.2362       73.525     
  17.61718 -0.152923E-02 -0.269407E-01  0.153938E-02  0.59742E-02   4.3008       73.713     
  17.64740 -0.163453E-02 -0.288453E-01  0.163793E-02  0.63566E-02   4.3611       73.892     
  17.67795 -0.171070E-02 -0.302417E-01  0.176243E-02  0.68398E-02   4.4192       74.070     
  17.70865 -0.175223E-02 -0.310297E-01  0.191814E-02  0.74441E-02   4.4743       74.246     
  17.73869 -0.175356E-02 -0.311058E-01  0.210765E-02  0.81796E-02   4.5251       74.416     
  17.76995 -0.170579E-02 -0.303118E-01  0.235474E-02  0.91385E-02   4.5745       74.588     
  17.79982 -0.160279E-02 -0.285293E-01  0.265295E-02  0.10296E-01   4.6182       74.750     
  17.83001 -0.142621E-02 -0.254294E-01  0.303720E-02  0.11787E-01   4.6592       74.909     
  17.86036 -0.115173E-02 -0.205703E-01  0.353887E-02  0.13734E-01   4.6969       75.067     
  17.89130 -0.732844E-03 -0.131115E-01  0.422050E-02  0.16379E-01   4.7320       75.224     
  17.92102 -0.137617E-03 -0.246624E-02  0.511491E-02  0.19850E-01   4.7625       75.371     
  17.95091  0.754782E-03  0.135490E-01  0.638116E-02  0.24765E-01   4.7902       75.517     
  17.98144  0.216486E-02  0.389273E-01  0.829427E-02  0.32189E-01   4.8154       75.662     
