# statistical analysis on data
# Fou-Filter of FT(chi(k))FT  
# k_min:     3.1177 K_max   18.9716
# Fourier filter above      8.000
#  <sigma_dat>   =      0.515E-03
#  <sigma2_dat>   =      0.265E-06
#                                  
#  k          chi(k)       Err             Ave_err
  3.117738  -0.031824      0.0000         0.21077E-02 
  3.162160  -0.015029    -0.18828E-02     0.20603E-02 
  3.204695  -0.000082    -0.42043E-03     0.20331E-02 
  3.246601   0.013237     0.17662E-02     0.20098E-02 
  3.288293   0.024992     0.32441E-02     0.19817E-02 
  3.331589   0.034431     0.30170E-02     0.19435E-02 
  3.373158   0.039962     0.11469E-02     0.19225E-02 
  3.412049   0.041579    -0.15598E-02     0.18944E-02 
  3.452590   0.040483    -0.32611E-02     0.18611E-02 
  3.490572   0.036616    -0.41436E-02     0.18294E-02 
  3.527970   0.031123    -0.36464E-02     0.18027E-02 
  3.565017   0.025479    -0.64455E-03     0.17806E-02 
  3.601798   0.019435     0.88251E-03     0.17539E-02 
  3.640296   0.013533     0.16226E-02     0.17285E-02 
  3.676861   0.009002     0.19516E-02     0.17056E-02 
  3.712276   0.005145     0.13367E-02     0.16929E-02 
  3.747945   0.002074     0.32822E-03     0.16801E-02 
  3.784406  -0.000827    -0.11921E-02     0.16573E-02 
  3.819011  -0.002622    -0.17799E-02     0.16410E-02 
  3.855179  -0.004194    -0.16562E-02     0.16286E-02 
  3.889531  -0.005705    -0.81714E-03     0.16186E-02 
  3.925062  -0.007631     0.54678E-03     0.16224E-02 
  3.960119  -0.010803     0.13399E-02     0.15953E-02 
  3.994199  -0.014975     0.14019E-02     0.15947E-02 
  4.026877  -0.019272     0.11611E-02     0.15700E-02 
  4.061517  -0.024757    -0.41586E-03     0.14839E-02 
  4.094079  -0.028639    -0.12937E-02     0.14054E-02 
  4.127950  -0.030458    -0.89443E-03     0.13951E-02 
  4.159910  -0.031003    -0.29455E-03     0.13732E-02 
  4.192800  -0.030633     0.26930E-03     0.12731E-02 
  4.226081  -0.029465     0.65341E-03     0.10944E-02 
  4.257776  -0.027615     0.89404E-03     0.93101E-03 
  4.289483  -0.025716     0.39425E-03     0.92551E-03 
  4.321142  -0.023356    -0.38545E-03     0.91647E-03 
  4.351716  -0.019829    -0.56089E-03     0.88268E-03 
  4.382908  -0.016047    -0.11852E-02     0.82853E-03 
  4.413884  -0.011083    -0.11462E-02     0.80153E-03 
  4.444098  -0.004819    -0.90936E-04     0.80431E-03 
  4.475441   0.001749     0.83793E-03     0.79253E-03 
  4.506486   0.007544     0.10542E-02     0.74117E-03 
  4.536783   0.012815     0.11604E-02     0.70200E-03 
  4.568411   0.017157     0.70274E-03     0.70065E-03 
  4.639568   0.023447    -0.24643E-03     0.69644E-03 
  4.696323   0.024831    -0.30346E-03     0.66610E-03 
  4.751712   0.023177    -0.40061E-04     0.63149E-03 
  4.807343   0.019244    -0.85754E-04     0.60664E-03 
  4.863156   0.015272     0.16254E-03     0.60319E-03 
  4.918881   0.012260     0.39694E-03     0.56754E-03 
  4.974314   0.010237     0.12965E-03     0.55039E-03 
  5.029002   0.009429    -0.19154E-03     0.55159E-03 
  5.083147   0.009321    -0.49786E-03     0.55700E-03 
  5.136690   0.009920    -0.23447E-03     0.54750E-03 
  5.189725   0.010354     0.82255E-04     0.53259E-03 
  5.242589   0.010281     0.33551E-03     0.53854E-03 
  5.294185   0.009433     0.44829E-03     0.53719E-03 
  5.344743   0.007509     0.32062E-03     0.53048E-03 
  5.394146   0.004284    -0.16215E-03     0.49645E-03 
  5.442856   0.000280    -0.53464E-03     0.46637E-03 
  5.492003  -0.004280    -0.81809E-03     0.46890E-03 
  5.540145  -0.007789    -0.13085E-03     0.45094E-03 
  5.589215  -0.010519     0.69377E-03     0.41938E-03 
  5.638452  -0.012638     0.76955E-03     0.37954E-03 
  5.685176  -0.013675     0.25235E-03     0.36743E-03 
  5.732466  -0.013369    -0.37676E-03     0.37067E-03 
  5.778823  -0.011446    -0.41089E-03     0.36909E-03 
  5.825431  -0.008884    -0.34261E-03     0.37256E-03 
  5.873195  -0.005995    -0.77885E-04     0.39143E-03 
  5.919336  -0.003644    -0.65635E-04     0.40860E-03 
  5.965071  -0.001316     0.18145E-03     0.40735E-03 
  6.008933   0.000726     0.37369E-03     0.42302E-03 
  6.054626   0.002765     0.55902E-03     0.43146E-03 
  6.099438   0.004019     0.84906E-04     0.42425E-03 
  6.143662   0.005024    -0.39362E-03     0.42915E-03 
  6.187565   0.005840    -0.64065E-03     0.43577E-03 
  6.231531   0.006687    -0.30095E-03     0.43284E-03 
  6.275351   0.007101     0.16754E-03     0.42718E-03 
  6.319586   0.006570     0.83756E-04     0.42487E-03 
  6.361803   0.006386     0.39383E-03     0.42445E-03 
  6.405084   0.006073     0.32078E-03     0.41595E-03 
  6.448843   0.006225     0.20328E-03     0.39540E-03 
  6.491051   0.006682    -0.11192E-03     0.39488E-03 
  6.533282   0.007588    -0.27146E-03     0.38131E-03 
  6.575537   0.008461    -0.36334E-03     0.36410E-03 
  6.616428   0.008830    -0.39524E-03     0.36251E-03 
  6.658067   0.008517    -0.21325E-03     0.36253E-03 
  6.699521   0.007472     0.32332E-03     0.36332E-03 
  6.740268   0.005359     0.76422E-03     0.35996E-03 
  6.780572   0.002124     0.75872E-03     0.36199E-03 
  6.821134  -0.002526    -0.34193E-03     0.36595E-03 
  6.861643  -0.006325    -0.73305E-03     0.36974E-03 
  6.902272  -0.009079    -0.57009E-03     0.36711E-03 
  6.942450  -0.010726    -0.32526E-04     0.35657E-03 
  6.982318  -0.011662     0.47132E-03     0.35640E-03 
  7.021993  -0.012454     0.48585E-03     0.36642E-03 
  7.060416  -0.013381    -0.10395E-03     0.36982E-03 
  7.099534  -0.013396    -0.77651E-04     0.37230E-03 
  7.138675  -0.013303    -0.15531E-03     0.37489E-03 
  7.178405  -0.012878    -0.11039E-03     0.39438E-03 
  7.215959  -0.012162    -0.71546E-05     0.40397E-03 
  7.254731  -0.011119     0.47107E-04     0.40090E-03 
  7.292208  -0.009750     0.24687E-04     0.39964E-03 
  7.330029  -0.007642     0.24502E-03     0.40082E-03 
  7.366989  -0.005305     0.28145E-03     0.39942E-03 
  7.405740  -0.002905    -0.13199E-03     0.39694E-03 
  7.442652  -0.000220    -0.37755E-03     0.39578E-03 
  7.479573   0.002737    -0.43805E-03     0.39698E-03 
  7.516782   0.005994    -0.14207E-03     0.39420E-03 
  7.553577   0.009082     0.25424E-03     0.37685E-03 
  7.589440   0.011439     0.34578E-03     0.36516E-03 
  7.627074   0.013343     0.38011E-03     0.37438E-03 
  7.662636   0.014399     0.24904E-03     0.36375E-03 
  7.697858   0.014774     0.85677E-04     0.35243E-03 
  7.733548   0.014473    -0.48789E-04     0.35941E-03 
  7.768866   0.012956    -0.66697E-03     0.36009E-03 
  7.804036   0.011299    -0.71453E-03     0.36569E-03 
  7.839213   0.009358    -0.40496E-03     0.36869E-03 
  7.874955   0.007284     0.32506E-03     0.36850E-03 
  7.909859   0.004694     0.77883E-03     0.37215E-03 
  7.943837   0.001565     0.67915E-03     0.38202E-03 
  7.978765  -0.002117    -0.63953E-04     0.39172E-03 
  8.014499  -0.004606     0.30760E-04     0.39223E-03 
  8.050021  -0.006819    -0.22443E-03     0.39225E-03 
  8.084808  -0.007995    -0.16994E-03     0.39176E-03 
  8.120033  -0.008606    -0.23036E-03     0.39429E-03 
  8.153993  -0.008678    -0.34576E-03     0.39870E-03 
  8.188149  -0.008158    -0.28911E-03     0.39577E-03 
  8.221803  -0.007308    -0.12807E-03     0.38966E-03 
  8.255897  -0.006209     0.22145E-03     0.39175E-03 
  8.290426  -0.005295     0.47800E-03     0.39290E-03 
  8.323255  -0.004708     0.62425E-03     0.39265E-03 
  8.355775  -0.004621     0.47301E-03     0.38880E-03 
  8.388753  -0.005040    -0.24922E-04     0.38696E-03 
  8.421360  -0.005456    -0.44679E-03     0.38814E-03 
  8.454153  -0.005449    -0.49187E-03     0.38892E-03 
  8.488013  -0.005354    -0.63124E-03     0.37440E-03 
  8.520197  -0.004538    -0.31466E-03     0.35727E-03 
  8.551741  -0.003382     0.21358E-04     0.35310E-03 
  8.583911  -0.001846     0.36377E-03     0.34937E-03 
  8.616657  -0.000094     0.55654E-03     0.32696E-03 
  8.648734   0.001688     0.54806E-03     0.30965E-03 
  8.680811   0.003216     0.13471E-03     0.31081E-03 
  8.712906   0.005004    -0.34230E-04     0.31224E-03 
  8.744771   0.006645    -0.21127E-03     0.31139E-03 
  8.777510   0.008052    -0.39857E-03     0.31655E-03 
  8.809546   0.009225    -0.39672E-03     0.31544E-03 
  8.840825   0.010084    -0.22217E-03     0.31085E-03 
  8.872293   0.010491     0.28184E-05     0.30949E-03 
  8.903782   0.010441     0.29226E-03     0.31437E-03 
  8.934780   0.009649     0.31763E-03     0.31346E-03 
  8.965667   0.008434     0.33390E-03     0.30490E-03 
  8.996713   0.006378    -0.15591E-03     0.28863E-03 
  9.027858   0.004675    -0.69809E-04     0.28102E-03 
  9.057719   0.002732    -0.20939E-03     0.28111E-03 
  9.089742   0.001207     0.16374E-03     0.27321E-03 
  9.120765  -0.000602     0.39562E-04     0.26538E-03 
  9.151371  -0.002158    -0.95111E-04     0.24617E-03 
  9.182311  -0.003405    -0.21356E-03     0.24413E-03 
  9.213057  -0.004006    -0.28106E-04     0.24813E-03 
  9.242734  -0.004410     0.14726E-04     0.24503E-03 
  9.273069  -0.004460     0.14293E-03     0.23218E-03 
  9.303708  -0.004378     0.18142E-03     0.21553E-03 
  9.333404  -0.004184     0.19111E-03     0.21495E-03 
  9.363348  -0.004295    -0.17114E-03     0.21772E-03 
  9.393035  -0.004274    -0.39825E-03     0.22099E-03 
  9.422654  -0.003838    -0.15801E-03     0.21184E-03 
  9.453692  -0.003492     0.66383E-04     0.20286E-03 
  9.483685  -0.003302     0.22320E-03     0.19981E-03 
  9.513140  -0.003181     0.37198E-03     0.20017E-03 
  9.542770  -0.003442     0.16120E-03     0.19477E-03 
  9.572078  -0.003759    -0.12989E-03     0.19019E-03 
  9.602154  -0.003640    -0.58357E-04     0.19556E-03 
  9.631782  -0.003644    -0.22413E-03     0.19975E-03 
  9.661428  -0.003167    -0.51656E-04     0.19946E-03 
  9.690826  -0.002819    -0.15687E-03     0.19900E-03 
  9.720439  -0.002332    -0.27038E-03     0.20120E-03 
  9.749056  -0.001439    -0.74040E-04     0.20276E-03 
  9.777987  -0.000335     0.24275E-03     0.20224E-03 
  9.807619   0.000559     0.28146E-03     0.20000E-03 
  9.837241   0.001408     0.26688E-03     0.20280E-03 
  9.865134   0.002183     0.25406E-03     0.20638E-03 
  9.893714   0.002638    -0.45805E-04     0.20515E-03 
  9.921632   0.003258    -0.90802E-04     0.20393E-03 
  9.951136   0.003739    -0.22145E-03     0.20971E-03 
  9.979623   0.004128    -0.31950E-03     0.21085E-03 
 10.008557   0.004807    -0.20060E-04     0.20348E-03 
 10.037323   0.004987    -0.92023E-04     0.20194E-03 
 10.065436   0.005175    -0.14560E-04     0.20265E-03 
 10.093345   0.005075    -0.76056E-04     0.19957E-03 
 10.121229   0.004943    -0.87911E-05     0.19184E-03 
 10.150121   0.004737     0.17403E-03     0.19131E-03 
 10.178070   0.004446     0.44093E-03     0.19381E-03 
 10.206275   0.003569     0.30091E-03     0.19854E-03 
 10.234532   0.002357    -0.14426E-04     0.19610E-03 
 10.263453   0.001132    -0.19109E-03     0.19649E-03 
 10.291150  -0.000007    -0.24905E-03     0.19713E-03 
 10.318226  -0.001000    -0.16369E-03     0.19735E-03 
 10.346365  -0.001949    -0.26502E-04     0.20357E-03 
 10.374424  -0.002811     0.97727E-04     0.20113E-03 
 10.401998  -0.003947    -0.21393E-03     0.19623E-03 
 10.428472  -0.004592    -0.24282E-03     0.19186E-03 
 10.455609  -0.004788    -0.88542E-05     0.18879E-03 
 10.482738  -0.004881     0.11377E-03     0.18914E-03 
 10.510667  -0.004638     0.36349E-03     0.18954E-03 
 10.537271  -0.004604     0.22036E-03     0.19024E-03 
 10.563766  -0.004311     0.19089E-03     0.18866E-03 
 10.591136  -0.004054    -0.11106E-06     0.18971E-03 
 10.617671  -0.003674    -0.12609E-03     0.19234E-03 
 10.644923  -0.002977     0.15423E-04     0.19789E-03 
 10.672708  -0.002554    -0.13161E-03     0.20459E-03 
 10.698813  -0.002040    -0.13378E-03     0.20462E-03 
 10.725121  -0.001652    -0.23526E-03     0.20355E-03 
 10.751373  -0.001243    -0.27857E-03     0.19132E-03 
 10.777980  -0.000647    -0.10845E-03     0.18583E-03 
 10.804926  -0.000040     0.94120E-04     0.18585E-03 
 10.831688   0.000436     0.18603E-03     0.18780E-03 
 10.858520   0.000903     0.27690E-03     0.18488E-03 
 10.885145   0.001320     0.32427E-03     0.18368E-03 
 10.911790   0.001501     0.13937E-03     0.18562E-03 
 10.938545   0.001684    -0.36157E-04     0.18561E-03 
 10.964364   0.001990    -0.58841E-04     0.18268E-03 
 10.990960   0.002224    -0.13321E-03     0.17961E-03 
 11.016938   0.002531    -0.86256E-04     0.18175E-03 
 11.042190   0.002699    -0.11947E-03     0.18287E-03 
 11.068491   0.002721    -0.24435E-03     0.17609E-03 
 11.094266   0.002761    -0.27947E-03     0.17326E-03 
 11.120351   0.002919    -0.12748E-03     0.17162E-03 
 11.146621   0.003203     0.22071E-03     0.17405E-03 
 11.172753   0.003150     0.29477E-03     0.17453E-03 
 11.198709   0.003012     0.33700E-03     0.17458E-03 
 11.224739   0.002426    -0.23461E-04     0.17345E-03 
 11.259613   0.001980    -0.11379E-03     0.17277E-03 
 11.295844   0.001713     0.34246E-04     0.16901E-03 
 11.331110   0.001332     0.88208E-04     0.16397E-03 
 11.366235   0.000768    -0.19479E-04     0.16327E-03 
 11.401672   0.000052    -0.25632E-03     0.16411E-03 
 11.438244  -0.000340    -0.13624E-03     0.16172E-03 
 11.473677  -0.000611     0.94826E-04     0.15760E-03 
 11.509177  -0.001027     0.17164E-03     0.14923E-03 
 11.543490  -0.001741    -0.96958E-04     0.14781E-03 
 11.578356  -0.001991     0.50516E-04     0.14770E-03 
 11.614429  -0.002245     0.12010E-03     0.14800E-03 
 11.649263  -0.002399     0.17650E-03     0.14679E-03 
 11.684285  -0.002842    -0.17076E-03     0.14722E-03 
 11.718781  -0.002841    -0.18654E-03     0.14680E-03 
 11.753573  -0.002628    -0.95376E-04     0.14171E-03 
 11.787522  -0.002210     0.11759E-03     0.13644E-03 
 11.821864  -0.001871     0.18309E-03     0.13582E-03 
 11.856490  -0.001878    -0.15019E-03     0.13260E-03 
 11.891233  -0.001396    -0.31078E-04     0.12432E-03 
 11.926879  -0.000928     0.40624E-04     0.11505E-03 
 11.960811  -0.000483     0.92136E-04     0.11760E-03 
 11.994630  -0.000235    -0.62532E-04     0.11654E-03 
 12.028685   0.000136    -0.10250E-03     0.11990E-03 
 12.063302   0.000703     0.51018E-04     0.12056E-03 
 12.097745   0.001188     0.14078E-03     0.12057E-03 
 12.131276   0.001458     0.58999E-04     0.11431E-03 
 12.165355   0.001553    -0.15484E-03     0.11386E-03 
 12.199368   0.001899    -0.49070E-04     0.11294E-03 
 12.232535   0.002157     0.51602E-04     0.11146E-03 
 12.266455   0.002179    -0.91004E-06     0.11043E-03 
 12.300757   0.002082    -0.83209E-04     0.11048E-03 
 12.335712   0.002006    -0.59136E-04     0.10997E-03 
 12.368641   0.002015     0.11181E-03     0.10639E-03 
 12.401431   0.001786     0.96776E-04     0.10476E-03 
 12.434742   0.001464     0.31405E-04     0.10057E-03 
 12.468603   0.001005    -0.13957E-03     0.10225E-03 
 12.502785   0.000933     0.97358E-04     0.10109E-03 
 12.535407   0.000650     0.11866E-03     0.96912E-04 
 12.567780   0.000181    -0.42827E-04     0.96773E-04 
 12.601221  -0.000253    -0.15758E-03     0.10122E-03 
 12.634445  -0.000567    -0.15571E-03     0.10167E-03 
 12.667421  -0.000662     0.55412E-04     0.10880E-03 
 12.699560  -0.000823     0.18141E-03     0.10898E-03 
 12.731601  -0.001389    -0.11882E-03     0.10807E-03 
 12.763622  -0.001486     0.22819E-04     0.10906E-03 
 12.796411  -0.001634     0.82818E-04     0.10827E-03 
 12.829267  -0.001760     0.12040E-03     0.10965E-03 
 12.861195  -0.002016    -0.23928E-04     0.11112E-03 
 12.893259  -0.002178    -0.12713E-03     0.11817E-03 
 12.926931  -0.002038     0.16685E-04     0.11964E-03 
 12.958604  -0.001946     0.54535E-04     0.12099E-03 
 12.990194  -0.001991    -0.99812E-04     0.12035E-03 
 13.022030  -0.001711     0.12078E-04     0.12293E-03 
 13.054950  -0.001614    -0.12414E-03     0.12419E-03 
 13.087533  -0.001182     0.20359E-04     0.12329E-03 
 13.119608  -0.000719     0.15056E-03     0.12341E-03 
 13.151296  -0.000568    -0.66762E-04     0.12228E-03 
 13.183173  -0.000123    -0.20246E-04     0.12136E-03 
 13.215563   0.000458     0.14656E-03     0.12303E-03 
 13.247256   0.000898     0.19025E-03     0.12403E-03 
 13.278200   0.000992    -0.72665E-04     0.12860E-03 
 13.310088   0.001120    -0.26181E-03     0.12721E-03 
 13.341424   0.001552    -0.73578E-04     0.12741E-03 
 13.372895   0.001843     0.51495E-04     0.12503E-03 
 13.404021   0.001978     0.10577E-03     0.12388E-03 
 13.435144   0.001756    -0.11389E-03     0.12571E-03 
 13.467799   0.001663    -0.12451E-03     0.12592E-03 
 13.500413   0.001829     0.19214E-03     0.12653E-03 
 13.531928   0.001704     0.25907E-03     0.12653E-03 
 13.562899   0.001099    -0.12881E-03     0.12523E-03 
 13.594271   0.000882    -0.11439E-03     0.12545E-03 
 13.625883   0.000739    -0.26205E-04     0.12901E-03 
 13.656996   0.000717     0.16915E-03     0.12825E-03 
 13.687845   0.000192    -0.15807E-03     0.13016E-03 
 13.719943   0.000184     0.21385E-04     0.12892E-03 
 13.752057  -0.000051    -0.46389E-04     0.12930E-03 
 13.782619  -0.000057     0.91504E-04     0.12742E-03 
 13.813035  -0.000258     0.21555E-04     0.12933E-03 
 13.844036  -0.000575    -0.17454E-03     0.13067E-03 
 13.876025  -0.000623    -0.10801E-03     0.13072E-03 
 13.907180  -0.000348     0.26660E-03     0.13084E-03 
 13.937763  -0.000601     0.10017E-03     0.13089E-03 
 13.968213  -0.000845    -0.70954E-04     0.13020E-03 
 13.998912  -0.000928    -0.94569E-04     0.13120E-03 
 14.030036  -0.000827     0.50898E-04     0.13112E-03 
 14.060768  -0.000769     0.13721E-03     0.13028E-03 
 14.090174  -0.001013    -0.94773E-04     0.13299E-03 
 14.121352  -0.001057    -0.14355E-03     0.13413E-03 
 14.152848  -0.000867     0.23928E-04     0.13139E-03 
 14.183637  -0.000795     0.55681E-04     0.12802E-03 
 14.212494  -0.000746     0.49520E-04     0.12841E-03 
 14.242911  -0.000916    -0.19825E-03     0.12886E-03 
 14.273096  -0.000575     0.45878E-04     0.13788E-03 
 14.302775  -0.000365     0.14095E-03     0.13560E-03 
 14.333141  -0.000320     0.50481E-04     0.13361E-03 
 14.362607  -0.000289    -0.65698E-04     0.13612E-03 
 14.393152  -0.000120    -0.58258E-04     0.13599E-03 
 14.423164   0.000258     0.15508E-03     0.13585E-03 
 14.453180   0.000385     0.12013E-03     0.13718E-03 
 14.482637   0.000268    -0.14806E-03     0.13684E-03 
 14.512019   0.000359    -0.19358E-03     0.14131E-03 
 14.542382   0.000598    -0.76073E-04     0.13742E-03 
 14.572519   0.001020     0.24773E-03     0.13830E-03 
 14.601197   0.000717    -0.12607E-03     0.13839E-03 
 14.631855   0.000852    -0.42010E-04     0.13811E-03 
 14.660987   0.000869    -0.49308E-04     0.13881E-03 
 14.690586   0.001125     0.20364E-03     0.13816E-03 
 14.719415   0.001071     0.16661E-03     0.13799E-03 
 14.748849   0.000778    -0.88207E-04     0.13703E-03 
 14.779184   0.000627    -0.17923E-03     0.13700E-03 
 14.808948   0.000871     0.14374E-03     0.13775E-03 
 14.838193   0.000763     0.13305E-03     0.13824E-03 
 14.866269   0.000209    -0.31123E-03     0.13722E-03 
 14.895996   0.000325    -0.61098E-04     0.13749E-03 
 14.925394   0.000301     0.59354E-04     0.13702E-03 
 14.954632   0.000255     0.16590E-03     0.13842E-03 
 14.983170  -0.000089    -0.26684E-04     0.13845E-03 
 15.012092  -0.000294    -0.83109E-04     0.14392E-03 
 15.040875  -0.000471    -0.12240E-03     0.14251E-03 
 15.070001  -0.000308     0.16358E-03     0.14342E-03 
 15.098353  -0.000324     0.24774E-03     0.14154E-03 
 15.127156  -0.000817    -0.16639E-03     0.14046E-03 
 15.155997  -0.000848    -0.14048E-03     0.14057E-03 
 15.185023  -0.000664     0.78069E-04     0.13500E-03 
 15.213592  -0.000681     0.75817E-04     0.13591E-03 
 15.241219  -0.000860    -0.10221E-03     0.13776E-03 
 15.270023  -0.000854    -0.10769E-03     0.13754E-03 
 15.299651  -0.000641     0.84425E-04     0.13408E-03 
 15.329180  -0.000597     0.10014E-03     0.13187E-03 
 15.356756  -0.000649     0.14702E-04     0.13387E-03 
 15.385021  -0.000728    -0.10676E-03     0.13225E-03 
 15.413818  -0.000657    -0.88461E-04     0.13071E-03 
 15.442837  -0.000337     0.16748E-03     0.13196E-03 
 15.470664  -0.000359     0.70883E-04     0.12285E-03 
 15.498437  -0.000464    -0.12155E-03     0.12843E-03 
 15.527699  -0.000373    -0.13402E-03     0.12831E-03 
 15.556013  -0.000063     0.68065E-04     0.12932E-03 
 15.584053   0.000236     0.25533E-03     0.12982E-03 
 15.611102  -0.000002    -0.88721E-04     0.13009E-03 
 15.639177   0.000033    -0.15751E-03     0.13038E-03 
 15.667874   0.000308     0.24227E-04     0.12927E-03 
 15.696545   0.000520     0.15881E-03     0.12622E-03 
 15.723326   0.000332    -0.83639E-04     0.12654E-03 
 15.750702   0.000449    -0.54007E-05     0.12532E-03 
 15.779619   0.000317    -0.16032E-03     0.12566E-03 
 15.807638   0.000634     0.14862E-03     0.12528E-03 
 15.834790   0.000480    -0.31921E-05     0.12510E-03 
 15.862250   0.000413    -0.61994E-04     0.12770E-03 
 15.890432   0.000397    -0.65054E-04     0.12758E-03 
 15.918345   0.000619     0.17053E-03     0.12887E-03 
 15.945669   0.000557     0.12177E-03     0.13096E-03 
 15.973139   0.000353    -0.66660E-04     0.13108E-03 
 16.000830   0.000227    -0.17560E-03     0.13120E-03 
 16.028555   0.000317    -0.63300E-04     0.13010E-03 
 16.056181   0.000596     0.24470E-03     0.12962E-03 
 16.083615   0.000361     0.47498E-04     0.12866E-03 
 16.110523   0.000073    -0.19476E-03     0.12735E-03 
 16.138091   0.000135    -0.76792E-04     0.12689E-03 
 16.166009   0.000248     0.98448E-04     0.12032E-03 
 16.192945   0.000221     0.13420E-03     0.12094E-03 
 16.219953  -0.000099    -0.12340E-03     0.12311E-03 
 16.247581  -0.000209    -0.17377E-03     0.12312E-03 
 16.275372   0.000089     0.17610E-03     0.12671E-03 
 16.302612  -0.000041     0.86189E-04     0.12913E-03 
 16.329470  -0.000252    -0.97204E-04     0.13179E-03 
 16.357445  -0.000216    -0.44219E-04     0.13107E-03 
 16.385749  -0.000085     0.92822E-04     0.13413E-03 
 16.412552   0.000018     0.19473E-03     0.13567E-03 
 16.439087  -0.000248    -0.76920E-04     0.13533E-03 
 16.466219  -0.000317    -0.15266E-03     0.13565E-03 
 16.493036  -0.000305    -0.14810E-03     0.13325E-03 
 16.520872  -0.000040     0.11237E-03     0.13327E-03 
 16.547474  -0.000055     0.95054E-04     0.13306E-03 
 16.573883  -0.000278    -0.12879E-03     0.13026E-03 
 16.600667  -0.000153    -0.47748E-05     0.13115E-03 
 16.628100  -0.000076     0.69436E-04     0.12733E-03 
 16.655064  -0.000072     0.67412E-04     0.13286E-03 
 16.681259  -0.000126     0.33729E-05     0.13072E-03 
 16.708057  -0.000129    -0.16260E-04     0.13114E-03 
 16.735392  -0.000208    -0.11744E-03     0.13022E-03 
 16.761942   0.000149     0.21444E-03     0.13049E-03 
 16.788265  -0.000010     0.26502E-04     0.12951E-03 
 16.814660  -0.000255    -0.24728E-03     0.13340E-03 
 16.868594   0.000223     0.17805E-03     0.13094E-03 
 16.900142   0.000236     0.16665E-03     0.13280E-03 
 16.931787  -0.000048    -0.13477E-03     0.13551E-03 
 16.963050  -0.000135    -0.23347E-03     0.13545E-03 
 16.994737   0.000236     0.12907E-03     0.13689E-03 
 17.025439   0.000102    -0.12377E-04     0.13546E-03 
 17.057059   0.000034    -0.87891E-04     0.13562E-03 
 17.088606   0.000189     0.56864E-04     0.13462E-03 
 17.119594   0.000265     0.12296E-03     0.13524E-03 
 17.150610   0.000105    -0.46298E-04     0.13486E-03 
 17.181607   0.000119    -0.37346E-04     0.13734E-03 
 17.213589   0.000269     0.11516E-03     0.13658E-03 
 17.244327   0.000284     0.14267E-03     0.14060E-03 
 17.275422  -0.000125    -0.24461E-03     0.14128E-03 
 17.306651  -0.000037    -0.12393E-03     0.14472E-03 
 17.337872   0.000148     0.10185E-03     0.15041E-03 
 17.368807   0.000003     0.69221E-06     0.15094E-03 
 17.399939  -0.000185    -0.14453E-03     0.15229E-03 
 17.431302  -0.000010     0.70380E-04     0.15079E-03 
 17.462177   0.000155     0.26682E-03     0.15110E-03 
 17.492443  -0.000205    -0.70693E-04     0.14709E-03 
 17.523693  -0.000314    -0.16438E-03     0.14516E-03 
 17.555465   0.000038     0.19629E-03     0.14371E-03 
 17.586062  -0.000129     0.35330E-04     0.14678E-03 
 17.617182  -0.000326    -0.15588E-03     0.14428E-03 
 17.647395  -0.000326    -0.14959E-03     0.14443E-03 
 17.677955  -0.000097     0.87815E-04     0.14566E-03 
 17.708649  -0.000083     0.11166E-03     0.14505E-03 
 17.738686  -0.000371    -0.16902E-03     0.14948E-03 
 17.769947  -0.000112     0.92710E-04     0.14950E-03 
 17.799816  -0.000009     0.18961E-03     0.15394E-03 
 17.830012  -0.000273    -0.91150E-04     0.15383E-03 
 17.860361  -0.000366    -0.21114E-03     0.15281E-03 
 17.891299  -0.000005     0.11169E-03     0.15123E-03 
 17.921017   0.000136     0.20972E-03     0.14745E-03 
 17.950914  -0.000288    -0.25903E-03     0.14616E-03 
 17.981443  -0.000069    -0.81722E-04     0.14676E-03 
 18.012627   0.000221     0.17374E-03     0.14797E-03 
 18.042693   0.000236     0.16652E-03     0.14767E-03 
 18.073335   0.000012    -0.67400E-04     0.14863E-03 
 18.103643  -0.000038    -0.11539E-03     0.14269E-03 
 18.133695   0.000163     0.95624E-04     0.14480E-03 
 18.163631  -0.000050    -0.10454E-03     0.14502E-03 
 18.193251  -0.000188    -0.23213E-03     0.14180E-03 
 18.223828   0.000199     0.15924E-03     0.14370E-03 
 18.253493   0.000181     0.13592E-03     0.14392E-03 
 18.283621  -0.000061    -0.12010E-03     0.14382E-03 
 18.313918   0.000057    -0.24272E-04     0.14434E-03 
 18.344279   0.000342     0.23545E-03     0.14497E-03 
 18.374533   0.000254     0.12390E-03     0.14300E-03 
 18.404887  -0.000091    -0.23658E-03     0.14406E-03 
 18.435134   0.000161     0.11802E-04     0.14267E-03 
 18.465351   0.000110    -0.27610E-04     0.14380E-03 
 18.494786   0.000080    -0.32939E-04     0.14148E-03 
 18.525083  -0.000046    -0.12097E-03     0.14224E-03 
 18.555573   0.000045     0.15850E-04     0.13976E-03 
 18.585061   0.000116     0.13190E-03     0.13450E-03 
 18.614828  -0.000175    -0.11928E-03     0.13582E-03 
 18.645206   0.000045     0.13207E-03     0.13442E-03 
 18.675650   0.000023     0.12768E-03     0.13322E-03 
 18.705648  -0.000153    -0.44499E-04     0.13492E-03 
 18.735813  -0.000270    -0.17095E-03     0.13556E-03 
 18.765323   0.000090     0.17188E-03     0.13682E-03 
 18.794618  -0.000020     0.40592E-04     0.13791E-03 
 18.824015  -0.000191    -0.15159E-03     0.13275E-03 
 18.853004  -0.000187    -0.16378E-03     0.13154E-03 
 18.883431   0.000132     0.14537E-03     0.13134E-03 
 18.912757   0.000107     0.11750E-03     0.13183E-03 
 18.942141  -0.000155    -0.14037E-03     0.13483E-03 
 18.971576  -0.000098    -0.76879E-04     0.12773E-03 
