# Sample : Au300K    
# data between:  11699.99900  13696.55000 eV
# number of points:  630
# Absorption 
# Energy    Absorption
11699.999000   1.163984    
11709.980000   1.159329    
11720.010000   1.154583    
11730.035000   1.149689    
11740.091000   1.145297    
11750.105000   1.140420    
11760.208000   1.135921    
11770.339000   1.131885    
11780.483000   1.127673    
11790.656000   1.123480    
11800.819000   1.119451    
11811.049000   1.114969    
11821.325000   1.111315    
11831.531000   1.107388    
11841.933000   1.103581    
11852.198000   1.100428    
11862.533000   1.097025    
11872.857000   1.094158    
11883.154000   1.093571    
11893.498000   1.095961    
11901.195000   1.102799    
11902.168000   1.104641    
11903.153000   1.106362    
11904.166000   1.108871    
11905.135000   1.112139    
11906.129000   1.115578    
11907.075000   1.119001    
11908.078000   1.123561    
11909.118000   1.129218    
11910.094000   1.135492    
11911.070000   1.143145    
11912.078000   1.152392    
11913.095000   1.164713    
11914.055000   1.181390    
11915.051000   1.203507    
11916.049000   1.237956    
11917.048000   1.293885    
11918.047000   1.374368    
11919.092000   1.470724    
11920.084000   1.576615    
11921.077000   1.663724    
11922.072000   1.720094    
11923.048000   1.755279    
11924.061000   1.773832    
11925.027000   1.779335    
11926.043000   1.779704    
11927.021000   1.780084    
11928.037000   1.787245    
11929.035000   1.800645    
11930.040000   1.820263    
11931.029000   1.838670    
11931.998000   1.852213    
11933.017000   1.862059    
11934.014000   1.866907    
11935.011000   1.867415    
11936.024000   1.866909    
11937.003000   1.867833    
11938.001000   1.872461    
11938.983000   1.880066    
11939.995000   1.887349    
11940.987000   1.896096    
11941.977000   1.913007    
11943.022000   1.943140    
11944.047000   1.977522    
11945.046000   2.010381    
11946.044000   2.030611    
11947.036000   2.033262    
11948.098000   2.021242    
11949.099000   2.001806    
11950.102000   1.981970    
11951.083000   1.962496    
11952.085000   1.949709    
11953.069000   1.943817    
11954.099000   1.942406    
11955.113000   1.939185    
11956.106000   1.933735    
11957.096000   1.926650    
11958.078000   1.921167    
11959.093000   1.919391    
11960.093000   1.921844    
11961.108000   1.928664    
11962.102000   1.937253    
11963.105000   1.949546    
11964.126000   1.963265    
11965.114000   1.977792    
11966.106000   1.992227    
11967.111000   2.006536    
11968.151000   2.017442    
11969.176000   2.022411    
11970.244000   2.021411    
11971.220000   2.016774    
11972.233000   2.008542    
11973.244000   1.999854    
11974.229000   1.992385    
11975.259000   1.985763    
11976.243000   1.979760    
11977.258000   1.974369    
11978.298000   1.969936    
11979.321000   1.964930    
11980.342000   1.961176    
11981.401000   1.959013    
11982.426000   1.956973    
11983.454000   1.954131    
11984.479000   1.951038    
11985.530000   1.946696    
11986.556000   1.940548    
11987.550000   1.934439    
11988.587000   1.927005    
11989.575000   1.920503    
11990.595000   1.915453    
11991.589000   1.911542    
11992.596000   1.909862    
11993.599000   1.910111    
11994.608000   1.910896    
11995.626000   1.912108    
11996.624000   1.914017    
11997.623000   1.916112    
11998.641000   1.918923    
11999.649000   1.922939    
12000.655000   1.927932    
12001.663000   1.933945    
12002.676000   1.941012    
12003.687000   1.948612    
12004.695000   1.955434    
12005.736000   1.961213    
12006.769000   1.964588    
12007.778000   1.966302    
12008.783000   1.967155    
12009.797000   1.966778    
12010.892000   1.964986    
12011.880000   1.962861    
12012.863000   1.960234    
12013.900000   1.956853    
12014.911000   1.953095    
12015.922000   1.950058    
12016.932000   1.946327    
12017.929000   1.942684    
12018.949000   1.940604    
12019.956000   1.937986    
12021.973000   1.934728    
12023.950000   1.933707    
12026.008000   1.934479    
12027.965000   1.935259    
12029.963000   1.935758    
12031.956000   1.935402    
12033.953000   1.932245    
12035.975000   1.928147    
12038.001000   1.922664    
12039.985000   1.914974    
12041.978000   1.907942    
12043.990000   1.900815    
12046.004000   1.895338    
12047.998000   1.892188    
12049.997000   1.891148    
12051.974000   1.892256    
12053.970000   1.894935    
12056.020000   1.900095    
12057.997000   1.904203    
12060.057000   1.908429    
12062.117000   1.911995    
12064.134000   1.914372    
12066.154000   1.916399    
12068.149000   1.917957    
12070.185000   1.918594    
12072.231000   1.918921    
12074.305000   1.918792    
12076.326000   1.918172    
12078.358000   1.916450    
12080.403000   1.913917    
12082.447000   1.911389    
12084.494000   1.909866    
12086.528000   1.909694    
12088.533000   1.911248    
12090.540000   1.913180    
12092.572000   1.915201    
12094.616000   1.916892    
12096.654000   1.915828    
12098.703000   1.912061    
12100.776000   1.906309    
12102.844000   1.898215    
12104.860000   1.889443    
12106.906000   1.880801    
12108.913000   1.875544    
12110.958000   1.872110    
12113.014000   1.870730    
12115.070000   1.869613    
12117.192000   1.868302    
12119.275000   1.867470    
12121.373000   1.866762    
12123.454000   1.866460    
12125.482000   1.866820    
12127.489000   1.867103    
12129.552000   1.867663    
12131.595000   1.869368    
12133.624000   1.871843    
12135.666000   1.875221    
12137.643000   1.879200    
12139.725000   1.883378    
12141.741000   1.887968    
12143.785000   1.893657    
12145.792000   1.900080    
12147.823000   1.903970    
12149.875000   1.907230    
12151.889000   1.908098    
12153.962000   1.906269    
12156.030000   1.902259    
12158.132000   1.897147    
12160.182000   1.890871    
12162.237000   1.884050    
12164.257000   1.876792    
12166.396000   1.868866    
12168.472000   1.859682    
12170.549000   1.849807    
12172.630000   1.840985    
12174.704000   1.835229    
12176.781000   1.832606    
12178.878000   1.832538    
12180.935000   1.833691    
12183.008000   1.836623    
12185.104000   1.841357    
12187.187000   1.845579    
12189.278000   1.848830    
12191.395000   1.850321    
12193.476000   1.849017    
12195.523000   1.845019    
12197.601000   1.839312    
12199.633000   1.834420    
12201.717000   1.831930    
12203.805000   1.831606    
12205.896000   1.832958    
12207.985000   1.836224    
12210.076000   1.840724    
12212.167000   1.845114    
12214.259000   1.848854    
12216.345000   1.852747    
12218.385000   1.855831    
12220.454000   1.859114    
12222.528000   1.862621    
12224.579000   1.864954    
12226.631000   1.865260    
12228.723000   1.864146    
12230.776000   1.861145    
12232.859000   1.856392    
12234.958000   1.850239    
12237.065000   1.840739    
12239.160000   1.832266    
12242.973000   1.817304    
12246.038000   1.808413    
12249.030000   1.802437    
12252.047000   1.801174    
12255.074000   1.802526    
12258.229000   1.804914    
12261.263000   1.808502    
12264.300000   1.811511    
12267.335000   1.812544    
12270.436000   1.812674    
12273.474000   1.811723    
12276.515000   1.806957    
12279.551000   1.800965    
12282.593000   1.795735    
12285.656000   1.793009    
12288.742000   1.793867    
12291.795000   1.799219    
12294.851000   1.804420    
12298.018000   1.807701    
12301.009000   1.809046    
12304.008000   1.808657    
12307.063000   1.806999    
12310.203000   1.807047    
12313.245000   1.808124    
12316.310000   1.809391    
12319.367000   1.807818    
12322.430000   1.804733    
12325.532000   1.799043    
12328.562000   1.790082    
12331.697000   1.778902    
12334.770000   1.767619    
12337.930000   1.757713    
12340.978000   1.750180    
12344.052000   1.747097    
12347.163000   1.747182    
12350.301000   1.749211    
12353.393000   1.752810    
12356.484000   1.757869    
12359.518000   1.761775    
12362.609000   1.764797    
12365.734000   1.766036    
12368.777000   1.766113    
12371.866000   1.766972    
12374.957000   1.767824    
12378.066000   1.768294    
12381.142000   1.767921    
12384.241000   1.766333    
12387.336000   1.763163    
12390.512000   1.760600    
12393.604000   1.759521    
12396.694000   1.759222    
12399.748000   1.759203    
12402.850000   1.757691    
12405.956000   1.754289    
12409.082000   1.748667    
12412.173000   1.743316    
12415.289000   1.738810    
12418.530000   1.735069    
12421.675000   1.731083    
12424.816000   1.727296    
12427.889000   1.724216    
12431.090000   1.721885    
12434.223000   1.719766    
12437.323000   1.716817    
12440.449000   1.714023    
12443.604000   1.711015    
12446.750000   1.708033    
12449.902000   1.705961    
12453.007000   1.705890    
12456.162000   1.707770    
12459.411000   1.709296    
12462.507000   1.710244    
12465.662000   1.710018    
12468.857000   1.708991    
12472.069000   1.709235    
12475.211000   1.710161    
12478.357000   1.711468    
12481.507000   1.712403    
12484.656000   1.712735    
12487.831000   1.712755    
12490.956000   1.712954    
12494.174000   1.712734    
12497.332000   1.711967    
12500.628000   1.710538    
12503.776000   1.707815    
12506.948000   1.703393    
12510.145000   1.698886    
12513.343000   1.695314    
12516.509000   1.690462    
12519.686000   1.683457    
12522.829000   1.677413    
12525.986000   1.672667    
12529.138000   1.668694    
12532.289000   1.666508    
12535.465000   1.666250    
12538.647000   1.665991    
12541.963000   1.666103    
12545.144000   1.665953    
12548.322000   1.665009    
12551.535000   1.663517    
12554.761000   1.661034    
12557.956000   1.657365    
12561.146000   1.651970    
12564.327000   1.647189    
12567.599000   1.642919    
12570.850000   1.640930    
12573.989000   1.641187    
12577.193000   1.642578    
12580.389000   1.644577    
12583.662000   1.647583    
12586.862000   1.651784    
12590.135000   1.655905    
12593.330000   1.659636    
12596.544000   1.662432    
12599.761000   1.663932    
12602.986000   1.664880    
12606.187000   1.664502    
12609.409000   1.662446    
12612.684000   1.659848    
12615.919000   1.655910    
12619.127000   1.651094    
12622.353000   1.646155    
12625.645000   1.640336    
12628.871000   1.632645    
12632.098000   1.624027    
12635.294000   1.617225    
12638.558000   1.611883    
12641.842000   1.607803    
12645.080000   1.605361    
12648.309000   1.604113    
12651.559000   1.603655    
12654.856000   1.604292    
12658.048000   1.605259    
12661.296000   1.605787    
12664.549000   1.605777    
12667.856000   1.604876    
12671.113000   1.602326    
12674.403000   1.600260    
12677.677000   1.598702    
12681.031000   1.597595    
12684.264000   1.596293    
12687.516000   1.595527    
12690.809000   1.594306    
12694.082000   1.593509    
12697.344000   1.592659    
12700.558000   1.591220    
12703.845000   1.590135    
12707.096000   1.589914    
12710.499000   1.589538    
12713.777000   1.589537    
12717.110000   1.589397    
12720.474000   1.589385    
12723.893000   1.589624    
12727.165000   1.590413    
12730.470000   1.591088    
12733.799000   1.590625    
12737.221000   1.589044    
12740.541000   1.587021    
12743.799000   1.583732    
12747.159000   1.580692    
12750.464000   1.578160    
12753.781000   1.575211    
12757.039000   1.571213    
12760.336000   1.567431    
12763.634000   1.563563    
12767.071000   1.559620    
12770.383000   1.555911    
12773.717000   1.551858    
12777.025000   1.548507    
12780.451000   1.545083    
12783.819000   1.542009    
12787.132000   1.538138    
12790.445000   1.535519    
12793.832000   1.533979    
12797.150000   1.533208    
12800.480000   1.532270    
12803.792000   1.531596    
12807.109000   1.531397    
12810.588000   1.531116    
12813.905000   1.531605    
12817.230000   1.531010    
12820.628000   1.530481    
12824.035000   1.529826    
12827.375000   1.529824    
12830.772000   1.528710    
12834.123000   1.527482    
12837.564000   1.526369    
12840.930000   1.525291    
12844.286000   1.523813    
12847.623000   1.522849    
12851.004000   1.522723    
12854.387000   1.523265    
12857.733000   1.524255    
12861.091000   1.524788    
12864.442000   1.524241    
12867.870000   1.524303    
12871.227000   1.523823    
12874.586000   1.522108    
12877.985000   1.519716    
12881.382000   1.516370    
12884.803000   1.512063    
12888.110000   1.506000    
12891.479000   1.501045    
12894.850000   1.495940    
12898.355000   1.492501    
12901.678000   1.489992    
12905.036000   1.488260    
12908.421000   1.486995    
12911.940000   1.486082    
12915.326000   1.484490    
12918.751000   1.482075    
12922.095000   1.479375    
12925.577000   1.476363    
12928.972000   1.473459    
12932.336000   1.470628    
12935.726000   1.468672    
12939.136000   1.465963    
12942.566000   1.463804    
12945.920000   1.461940    
12949.319000   1.460903    
12952.783000   1.460115    
12956.333000   1.459401    
12959.749000   1.459025    
12963.162000   1.458493    
12966.596000   1.458566    
12970.092000   1.459146    
12973.460000   1.459483    
12976.884000   1.460578    
12980.301000   1.461665    
12983.785000   1.462674    
12987.206000   1.462976    
12990.627000   1.463144    
12994.114000   1.461969    
12997.552000   1.458954    
13004.178000   1.454441    
13008.141000   1.451215    
13012.199000   1.448613    
13016.308000   1.446659    
13020.337000   1.443151    
13024.361000   1.439192    
13028.398000   1.435992    
13032.500000   1.433113    
13036.490000   1.428827    
13040.540000   1.424638    
13044.786000   1.421229    
13048.813000   1.419244    
13052.901000   1.419165    
13056.915000   1.420466    
13061.054000   1.421268    
13065.127000   1.421242    
13069.190000   1.419936    
13073.320000   1.416408    
13077.401000   1.412075    
13081.426000   1.405787    
13085.530000   1.399853    
13089.639000   1.395912    
13093.728000   1.393271    
13097.874000   1.391875    
13101.974000   1.390937    
13106.074000   1.390435    
13110.150000   1.388901    
13114.241000   1.386957    
13118.359000   1.385153    
13122.528000   1.383577    
13126.576000   1.382999    
13130.687000   1.383469    
13134.799000   1.383968    
13138.910000   1.385299    
13143.103000   1.387156    
13147.289000   1.388126    
13151.412000   1.388148    
13155.502000   1.387265    
13159.597000   1.384061    
13163.673000   1.380882    
13167.844000   1.377438    
13171.919000   1.373061    
13176.107000   1.369238    
13180.196000   1.366460    
13184.343000   1.363519    
13188.515000   1.360337    
13192.675000   1.358074    
13196.970000   1.355791    
13201.112000   1.354087    
13205.254000   1.352186    
13209.475000   1.349784    
13213.780000   1.346501    
13217.897000   1.343300    
13222.081000   1.339844    
13226.296000   1.338012    
13230.488000   1.336545    
13234.665000   1.334669    
13238.846000   1.333056    
13243.271000   1.331398    
13247.444000   1.329463    
13251.640000   1.326979    
13255.842000   1.324502    
13260.172000   1.321425    
13264.368000   1.319003    
13268.541000   1.317533    
13272.692000   1.316608    
13276.911000   1.316183    
13281.156000   1.315811    
13285.313000   1.314715    
13289.762000   1.313422    
13293.999000   1.311833    
13298.196000   1.310050    
13302.417000   1.308517    
13306.819000   1.307711    
13311.025000   1.307260    
13315.255000   1.306750    
13319.573000   1.306151    
13323.881000   1.304692    
13328.187000   1.303447    
13332.366000   1.301362    
13336.791000   1.299084    
13341.019000   1.295495    
13345.262000   1.291939    
13349.512000   1.288605    
13353.928000   1.285792    
13358.187000   1.283728    
13362.446000   1.281999    
13366.785000   1.280369    
13371.109000   1.278215    
13375.341000   1.275448    
13379.652000   1.271961    
13383.982000   1.269468    
13388.231000   1.267097    
13392.538000   1.264283    
13396.789000   1.262183    
13401.085000   1.260014    
13405.375000   1.258120    
13409.668000   1.256561    
13413.963000   1.254917    
13418.402000   1.253062    
13422.641000   1.251506    
13426.948000   1.249615    
13431.334000   1.248144    
13435.695000   1.246844    
13440.000000   1.244520    
13444.275000   1.242478    
13448.774000   1.240289    
13453.107000   1.238730    
13457.414000   1.237345    
13461.725000   1.236417    
13466.163000   1.235424    
13470.514000   1.233838    
13474.808000   1.232874    
13479.171000   1.231985    
13483.491000   1.230439    
13487.845000   1.228752    
13492.184000   1.226494    
13496.827000   1.223732    
13505.973000   1.219258    
13512.109000   1.217320    
13518.092000   1.214892    
13524.064000   1.212704    
13530.230000   1.209957    
13536.286000   1.207046    
13542.320000   1.204112    
13548.515000   1.201107    
13554.585000   1.197209    
13560.762000   1.194420    
13566.797000   1.191076    
13572.905000   1.187597    
13579.144000   1.184491    
13585.238000   1.180516    
13591.287000   1.176890    
13597.539000   1.173807    
13603.721000   1.169810    
13609.886000   1.167402    
13615.952000   1.164918    
13622.030000   1.162740    
13628.379000   1.161276    
13634.532000   1.160729    
13640.701000   1.160018    
13646.949000   1.159257    
13653.090000   1.158092    
13659.287000   1.156434    
13665.396000   1.152844    
13671.519000   1.148750    
13677.901000   1.145331    
13684.047000   1.141696    
13690.325000   1.139137    
13696.550000   1.136898    
